[SAMPLE]
{
Sample	1
Well	2:9
FileName	12379-80_8807
SampleID	12379-80
SampleDescription
Date	02-Jan-2018
Time	17:17:19
JobCode	12379-80_8807
TaskCode
UserName
LabName
Instrument	ACQ-QDA#KAD2940
Conditions
Submitter	lzhao
SampleType	0
Plate	01TL,XY,SD,1: 6,2: 9,3: 90.0,4: 90.0,5:  0.0,6:  0.0,7:O,8:O,9:1265.0,10:845.0,11:660.0,12: 90.0,13:135.0,14:110.0
QCBatchName
QCFileName
QCDate
QCTime
QCStatus
QCReason1
QCReason2
Method	OpenAccess.olp
Process	Waters_PostRun2
MSTune
MSMethod	standard
InletMethod	AcN_TFA
PreRunMethod	GetRdy_AcN_TFA
PostRunMethod
SwitchMethod
FractionMethod
AcquisitionProcess
AcquisitionProcessParameters
AcquisitionProcessOptions
InjectionVolume	1.0000
ReportScheme	C:\MassLynx\SampleReport.ors
SampleReportEnable	0
SampleReportFormat	C:\MassLynx\SummaryReport.ors
AnalysisTime	3.0000
ColumnName	 ACQUITY UPLC® BEH C18 1.7µm
Spare1
Spare2
Spare3
Spare4
Spare5
[COMPOUND]
{
;Mono Mass		Formula
}
[FRACTIONRESULTS]
{
}
[FRACTION]
{
}
[FUNCTION]
{
Function	1
IonMode	ES+ 
Type	MS 
Description	(105:900) 
[SPECTRUM]
{
ProcDesc	Combine (179:191-(143:148+222:227))
State	Diversity fail
Peak ID	3
Peak Ref	1
Time	0.6163
TIC	3305571
BPI	772838
BPM	337.0006
Continuum	FALSE
Saved	FALSE
[MS]
{
;Mass	% BPI
120.94	0.838
130.11	55.862
131.15	5.214
151.04	22.909
152.13	2.152
168.96	2.493
169.82	1.643
199.11	3.033
227.05	18.142
228.15	1.633
234.98	0.812
236.06	0.570
239.14	0.602
259.98	2.507
260.91	1.026
281.05	3.194
290.87	3.418
292.03	0.883
292.92	5.119
294.03	0.791
312.87	1.271
314.98	1.739
316.12	0.532
322.98	23.335
324.07	0.734
324.96	25.208
325.98	3.429
327.03	0.747
328.14	0.776
337.00	100.000
337.98	7.685
339.00	88.977
340.05	11.364
341.15	0.619
345.01	0.591
359.01	1.810
361.08	1.916
405.00	1.296
407.06	2.073
427.01	5.190
428.97	4.438
432.20	0.520
453.44	1.153
476.18	1.539
481.19	1.098
482.93	0.644
520.30	2.043
564.43	0.764
626.91	0.637
640.82	0.572
737.75	0.502
738.98	0.577
832.90	1.095
}
}
[SPECTRUM]
{
ProcDesc	Combine (210:222-(174:179+253:258))
State	Diversity fail
Peak ID	6
Peak Ref	3
Time	0.7196
TIC	5134160
BPI	415574
BPM	539.9992
Continuum	FALSE
Saved	FALSE
[MS]
{
;Mass	% BPI
107.04	0.777
132.83	0.753
142.26	0.525
156.03	2.156
158.04	1.226
166.04	4.040
174.17	0.712
178.02	0.587
179.93	0.973
182.03	1.706
182.98	0.702
184.00	0.500
185.10	0.507
193.06	0.626
195.46	0.561
207.24	0.629
210.06	1.221
211.23	0.576
216.03	2.042
225.27	0.512
227.05	14.245
228.04	2.539
232.10	3.058
232.98	0.896
236.10	0.656
237.09	1.125
238.03	0.912
240.05	0.565
241.04	1.480
250.99	1.425
257.04	0.781
264.04	0.742
265.11	0.543
267.10	1.666
268.08	1.717
269.17	1.901
270.60	5.872
271.53	5.228
272.22	0.504
273.20	0.817
274.09	0.964
274.89	4.058
276.04	2.209
277.08	2.132
281.10	0.571
284.05	3.469
284.91	2.495
285.75	0.668
286.83	0.668
290.32	0.631
295.03	34.491
296.11	10.774
297.12	2.369
298.12	0.644
299.07	9.391
299.70	0.522
300.29	1.513
301.15	1.856
309.07	1.260
312.00	1.492
313.15	2.452
314.17	0.876
317.06	22.785
318.05	3.450
319.99	0.521
323.10	0.726
323.90	0.756
324.85	0.647
329.12	29.848
330.10	4.582
331.07	1.931
332.18	0.547
333.11	2.382
334.19	0.910
335.16	1.248
337.03	3.362
337.98	5.093
339.05	12.843
340.04	7.690
340.98	1.673
343.03	1.563
346.14	2.858
346.99	0.688
348.08	5.509
350.07	1.305
351.09	3.431
352.10	1.500
353.06	1.872
354.18	2.150
355.01	2.067
357.13	1.169
357.98	1.190
358.95	11.877
360.12	2.117
360.99	10.664
362.15	4.483
363.10	2.710
364.29	0.841
365.28	0.682
368.47	1.152
371.23	0.581
372.20	0.543
372.99	56.714
373.96	6.924
375.01	66.720
376.08	10.545
380.03	0.601
380.84	1.780
381.97	0.517
383.18	0.838
389.09	0.927
389.97	5.646
390.99	1.431
392.05	7.951
393.15	0.841
394.02	1.381
394.96	42.220
396.05	5.827
396.98	38.681
398.03	5.858
398.98	1.555
400.16	1.134
401.14	0.694
402.26	0.516
405.11	1.541
406.11	2.277
407.07	0.826
408.08	4.001
409.11	3.395
409.92	1.341
410.63	2.909
411.30	1.042
416.08	0.591
417.01	0.989
420.03	1.677
421.02	1.288
421.97	0.828
423.08	0.521
424.02	0.889
428.11	0.798
429.21	2.727
432.99	1.382
434.12	1.773
435.15	1.116
436.00	2.684
437.88	0.897
445.18	1.251
448.01	1.238
453.03	1.262
457.90	2.680
458.87	1.522
459.93	1.096
461.13	0.806
462.14	7.123
467.89	0.820
469.64	1.260
472.04	30.085
472.95	5.100
474.04	29.573
474.56	0.519
475.11	5.344
476.03	1.864
477.05	2.246
478.22	0.975
486.10	0.582
493.73	0.555
495.93	7.467
498.03	5.588
503.15	1.108
507.56	0.504
513.99	4.008
514.94	1.461
521.17	38.198
522.28	10.349
523.54	0.778
526.05	1.134
527.06	1.437
527.68	0.743
528.24	1.412
530.06	0.711
530.88	1.270
531.99	1.528
536.00	2.150
536.83	0.502
537.69	1.106
538.60	1.159
540.00	100.000
540.99	17.926
541.99	96.115
543.01	27.284
544.02	4.451
544.87	0.599
545.54	1.064
547.79	1.050
549.84	1.524
551.05	0.873
552.06	0.668
553.94	1.244
554.97	1.325
556.08	1.596
557.97	0.502
562.02	20.524
562.89	3.113
563.95	22.964
564.94	3.607
565.90	1.244
566.82	0.954
567.85	0.976
569.67	0.525
571.36	0.632
572.89	1.107
574.05	0.736
577.44	1.265
580.25	1.824
582.08	1.149
582.97	0.695
584.17	1.194
585.80	0.963
586.58	0.581
591.40	0.538
594.81	0.970
597.23	0.784
605.04	1.871
606.44	1.349
609.23	0.510
611.23	1.178
612.12	0.737
613.04	0.578
615.05	0.528
616.98	0.711
631.84	0.756
633.01	1.458
634.96	1.311
639.17	0.577
645.22	2.682
647.22	0.565
653.97	0.529
655.01	0.516
655.98	0.622
665.11	1.122
666.45	0.861
667.87	1.427
669.23	0.951
673.34	0.530
676.00	0.709
676.97	0.675
680.13	0.716
680.91	1.176
681.82	0.652
683.34	0.920
686.45	0.594
687.26	1.148
688.89	0.950
690.99	0.731
693.32	0.598
694.54	1.794
695.31	0.747
699.90	0.929
701.90	0.947
703.27	1.221
708.52	0.793
709.60	1.737
710.52	2.320
711.44	1.054
712.66	0.998
715.41	0.578
723.77	1.442
724.70	1.406
725.60	0.718
727.56	1.329
730.50	0.739
732.75	0.524
733.95	0.722
735.58	0.640
736.44	0.536
740.47	0.748
741.67	0.678
743.54	0.680
750.32	0.739
751.57	0.667
752.91	1.080
754.42	0.533
755.14	2.032
756.20	0.591
759.88	0.551
763.94	1.549
765.13	0.855
766.75	1.478
767.75	0.709
768.88	3.368
770.22	1.717
771.07	1.503
773.96	0.542
775.82	0.524
776.63	0.503
778.16	0.725
779.97	0.873
783.97	0.815
785.98	0.886
787.74	0.504
788.72	1.965
789.34	0.798
790.05	1.777
790.84	3.647
791.52	0.528
792.08	1.921
793.07	5.278
793.97	1.560
795.05	0.572
796.10	0.726
797.36	0.990
798.60	0.996
800.40	0.570
803.96	0.997
805.05	0.552
806.05	0.809
806.81	0.732
808.05	0.958
810.88	2.404
811.84	0.897
812.86	4.833
814.09	1.445
815.08	1.990
815.78	0.701
820.34	0.546
828.70	0.989
829.43	1.751
831.29	1.166
832.99	0.645
834.01	0.814
839.39	0.637
840.30	0.652
848.61	0.673
861.91	0.547
863.05	0.618
885.84	0.659
889.96	0.507
}
}
[SPECTRUM]
{
ProcDesc	Combine (231:243-(195:200+274:279))
State	Diversity fail
Peak ID	8
Peak Ref	4
Time	0.7895
TIC	8004105
BPI	1654191
BPM	306.9547
Continuum	FALSE
Saved	FALSE
[MS]
{
;Mass	% BPI
150.99	2.893
165.95	1.043
167.07	11.690
168.11	0.775
182.03	1.029
184.07	0.811
216.03	0.814
280.01	0.546
283.91	0.539
304.96	94.530
305.96	10.085
306.95	100.000
308.01	10.576
308.98	0.975
316.14	57.727
317.15	9.788
318.12	2.107
334.14	1.442
337.97	3.744
339.97	3.734
340.92	1.037
345.13	1.006
356.17	4.351
357.09	0.925
360.21	2.775
362.11	1.000
363.06	0.897
365.01	1.195
372.99	2.226
374.96	2.752
376.06	0.802
385.17	5.329
386.16	1.301
387.19	0.572
395.03	1.495
396.95	1.706
398.10	1.573
399.19	1.202
408.98	0.971
410.95	0.948
440.02	54.548
441.05	10.867
442.03	53.764
443.05	12.114
444.09	1.524
486.87	0.676
507.17	0.946
522.02	0.516
}
}
[SPECTRUM]
{
ProcDesc	Combine (263:275-(227:232+306:311))
State	Diversity fail
Peak ID	10
Peak Ref	5
Time	0.8961
TIC	3362475
BPI	469575
BPM	465.9861
Continuum	FALSE
Saved	FALSE
[MS]
{
;Mass	% BPI
112.06	0.619
124.07	0.522
129.91	0.827
155.95	0.670
159.00	1.148
167.05	1.407
170.30	0.676
181.04	0.529
222.98	1.737
234.96	6.452
236.06	0.741
250.07	0.511
250.93	0.570
279.00	4.740
280.12	0.748
285.09	2.892
294.06	0.565
297.11	6.340
298.10	0.728
305.00	5.308
307.03	3.297
312.17	0.789
313.03	0.696
329.12	0.565
332.17	2.566
333.12	0.796
349.04	2.507
350.02	0.702
350.98	2.247
351.93	0.568
352.95	0.554
356.60	0.868
361.20	95.353
366.06	0.516
367.15	2.339
368.38	0.795
377.25	1.306
383.15	43.834
384.17	8.101
385.06	1.778
386.04	1.098
390.28	0.775
399.14	0.650
404.16	0.709
416.12	0.677
419.21	4.656
420.23	0.746
421.16	4.153
423.10	2.034
424.08	0.542
424.92	1.114
427.13	17.473
428.27	1.831
430.10	4.963
431.07	4.983
435.24	1.455
437.22	0.981
438.86	0.676
440.03	1.214
441.13	3.664
443.05	1.391
443.97	1.243
445.06	1.053
446.24	1.180
448.03	0.920
449.15	0.957
455.02	2.105
457.11	3.764
462.08	1.383
462.96	0.884
464.02	94.596
465.01	15.419
465.99	100.000
467.02	22.699
468.06	3.755
469.04	1.100
470.16	1.121
471.15	4.208
472.03	0.969
482.05	47.058
483.07	8.777
484.00	46.420
485.02	11.189
485.69	0.502
486.25	3.069
487.10	2.233
489.97	0.731
491.10	0.935
497.05	0.728
500.31	0.660
501.70	1.331
505.49	0.540
513.06	2.767
514.31	0.833
515.15	1.013
534.65	0.562
548.60	0.647
568.34	3.117
569.13	2.137
570.15	0.619
577.79	0.550
581.51	0.617
583.09	0.503
585.09	2.091
594.22	4.955
598.42	0.941
601.21	1.998
602.01	1.046
602.97	1.795
603.97	2.708
604.84	0.972
608.32	1.255
610.28	1.367
613.90	0.642
614.81	0.520
615.89	0.605
623.26	1.198
626.30	0.983
628.94	0.673
636.12	0.580
641.40	0.523
648.92	0.781
650.12	1.254
651.13	0.899
665.21	0.518
696.92	1.043
720.85	0.572
727.36	3.893
728.30	1.550
729.26	1.468
736.03	0.833
743.23	8.180
744.06	4.437
744.96	1.027
746.27	0.596
751.67	0.516
764.46	0.633
821.85	0.735
857.15	0.698
883.49	0.595
888.44	0.648
889.18	0.706
889.99	1.049
}
}
[SPECTRUM]
{
ProcDesc	Combine (278:290-(242:247+321:326))
State	Diversity fail
Peak ID	11
Peak Ref	6
Time	0.9461
TIC	5561754
BPI	3913291
BPM	489.1380
Continuum	FALSE
Saved	FALSE
[MS]
{
;Mass	% BPI
320.95	1.358
322.95	1.313
332.10	1.315
377.04	0.534
378.97	0.513
482.06	1.210
483.99	1.427
489.14	100.000
490.19	27.976
491.25	3.593
492.30	0.532
494.15	1.069
522.10	0.627
538.16	0.659
}
}
[SPECTRUM]
{
ProcDesc	Combine (289:301-(253:258+332:337))
State	Diversity fail
Peak ID	12
Peak Ref	7
Time	0.9828
TIC	17391202
BPI	5999383
BPM	509.9490
Continuum	FALSE
Saved	FALSE
[MS]
{
;Mass	% BPI
151.05	12.021
152.04	0.957
306.04	7.263
307.09	0.640
308.03	2.464
375.26	0.582
489.13	7.036
490.20	1.156
493.97	0.500
495.96	0.675
507.98	87.339
508.96	14.442
509.95	100.000
511.03	19.598
512.06	2.126
529.97	12.580
530.93	1.386
531.97	12.808
533.03	2.453
563.17	0.629
571.00	1.482
572.99	1.747
}
}
[CHROMATOGRAM]
{
TraceNumber	1
Description	MS ES+ :TIC
ProcDesc
MaxIntensity	57827924.00
[TRACE]
{
0.00327	2.792
0.00660	2.300
0.00993	2.372
0.01327	2.465
0.01660	2.200
0.01993	2.578
0.02325	2.367
0.02658	2.336
0.02992	2.298
0.03325	2.182
0.03658	2.380
0.03992	2.250
0.04325	2.270
0.04658	2.259
0.04992	2.284
0.05325	2.113
0.05657	2.165
0.05990	2.333
0.06323	2.384
0.06657	2.457
0.06990	2.523
0.07323	2.493
0.07657	2.353
0.07990	2.554
0.08323	2.579
0.08655	2.342
0.08988	2.125
0.09322	2.098
0.09655	2.273
0.09988	2.418
0.10322	2.530
0.10655	2.447
0.10988	2.506
0.11322	2.552
0.11655	2.271
0.11987	2.451
0.12320	2.350
0.12653	1.917
0.12987	2.424
0.13320	2.252
0.13653	2.581
0.13987	2.451
0.14320	2.332
0.14653	2.224
0.14985	2.620
0.15318	2.449
0.15652	2.676
0.15985	2.324
0.16318	2.066
0.16652	2.516
0.16985	2.262
0.17318	2.356
0.17652	2.217
0.17985	2.402
0.18317	2.573
0.18650	2.893
0.18983	2.822
0.19317	2.419
0.19650	2.261
0.19983	2.086
0.20317	2.494
0.20650	2.289
0.20983	2.514
0.21317	2.311
0.21648	2.326
0.21982	2.667
0.22315	2.280
0.22648	2.031
0.22982	2.000
0.23315	1.747
0.23648	1.971
0.23982	2.120
0.24315	1.868
0.24647	2.088
0.24980	2.433
0.25313	5.379
0.25647	8.889
0.25980	8.505
0.26313	7.661
0.26647	6.952
0.26980	6.626
0.27313	5.858
0.27647	5.143
0.27978	4.114
0.28312	3.465
0.28645	2.947
0.28978	2.847
0.29312	3.018
0.29645	2.737
0.29978	2.261
0.30312	2.483
0.30645	2.751
0.30978	2.275
0.31310	2.407
0.31643	2.597
0.31977	2.773
0.32310	2.536
0.32643	2.560
0.32977	2.548
0.33310	2.366
0.33643	2.306
0.33977	2.474
0.34308	2.344
0.34642	2.682
0.34975	2.566
0.35308	3.045
0.35642	3.667
0.35975	5.109
0.36308	5.449
0.36642	4.793
0.36975	5.650
0.37308	6.608
0.37640	7.836
0.37973	8.879
0.38307	8.958
0.38640	7.969
0.38973	6.348
0.39307	4.443
0.39640	3.934
0.39973	4.091
0.40307	3.629
0.40640	3.441
0.40972	3.131
0.41305	2.742
0.41638	2.929
0.41972	2.973
0.42305	3.176
0.42638	2.862
0.42972	3.045
0.43305	2.746
0.43638	2.845
0.43970	2.679
0.44303	2.698
0.44637	2.897
0.44970	2.747
0.45303	2.667
0.45637	2.964
0.45970	2.955
0.46303	3.374
0.46637	3.052
0.46970	3.574
0.47302	3.475
0.47635	2.779
0.47968	3.113
0.48302	2.867
0.48635	2.999
0.48968	2.723
0.49302	2.533
0.49635	2.325
0.49968	2.378
0.50300	2.617
0.50633	2.657
0.50967	2.558
0.51300	2.859
0.51633	2.971
0.51967	3.033
0.52300	3.323
0.52633	3.037
0.52967	3.349
0.53300	3.222
0.53632	2.879
0.53965	2.774
0.54298	2.751
0.54632	3.039
0.54965	3.969
0.55298	4.353
0.55632	4.625
0.55965	4.023
0.56298	4.036
0.56632	3.899
0.56963	5.157
0.57297	9.964
0.57630	11.578
0.57963	8.413
0.58297	6.475
0.58630	5.377
0.58963	5.845
0.59297	6.431
0.59630	6.445
0.59962	6.491
0.60295	7.109
0.60628	8.707
0.60962	10.770
0.61295	12.192
0.61628	16.301
0.61962	15.299
0.62295	11.955
0.62628	9.040
0.62962	8.099
0.63293	7.302
0.63627	7.298
0.63960	9.664
0.64293	11.635
0.64627	14.943
0.64960	15.828
0.65293	14.411
0.65627	12.433
0.65960	9.484
0.66293	9.879
0.66625	9.247
0.66958	9.854
0.67292	10.751
0.67625	12.008
0.67958	14.606
0.68292	10.803
0.68625	8.813
0.68958	8.158
0.69292	9.074
0.69623	9.910
0.69957	11.257
0.70290	12.411
0.70623	14.396
0.70957	15.566
0.71290	15.290
0.71623	20.247
0.71957	21.044
0.72290	13.613
0.72623	11.246
0.72955	15.264
0.73288	19.607
0.73622	16.068
0.73955	12.917
0.74288	10.585
0.74622	10.942
0.74955	11.960
0.75288	13.472
0.75622	12.551
0.75953	11.140
0.76287	9.776
0.76620	9.612
0.76953	9.967
0.77287	11.956
0.77620	14.684
0.77953	14.396
0.78287	17.487
0.78620	28.998
0.78953	35.732
0.79285	32.713
0.79618	25.795
0.79952	20.515
0.80285	15.953
0.80618	15.259
0.80952	14.872
0.81285	14.416
0.81618	13.351
0.81952	13.177
0.82285	12.541
0.82617	11.743
0.82950	12.013
0.83283	12.202
0.83617	13.076
0.83950	13.166
0.84283	11.963
0.84617	12.187
0.84950	11.368
0.85283	10.761
0.85615	10.556
0.85948	10.247
0.86282	9.383
0.86615	7.344
0.86948	7.467
0.87282	7.484
0.87615	8.138
0.87948	8.573
0.88282	8.641
0.88615	9.493
0.88947	11.815
0.89280	15.025
0.89613	18.062
0.89947	16.574
0.90280	16.144
0.90613	13.644
0.90947	11.668
0.91280	11.371
0.91613	11.862
0.91947	12.164
0.92278	13.070
0.92612	14.206
0.92945	12.528
0.93278	11.167
0.93612	11.912
0.93945	16.328
0.94278	21.520
0.94612	24.128
0.94945	23.984
0.95277	21.339
0.95610	16.486
0.95943	13.531
0.96277	12.455
0.96610	11.569
0.96943	11.812
0.97277	11.333
0.97610	13.900
0.97943	51.771
0.98277	100.000
0.98608	89.484
0.98942	74.347
0.99275	44.857
0.99608	33.589
0.99942	25.241
1.00275	20.033
1.00608	15.535
1.00942	13.877
1.01275	13.802
1.01608	12.116
1.01940	12.443
1.02273	12.316
1.02607	12.218
1.02940	11.480
1.03273	12.568
1.03607	11.336
1.03940	10.505
1.04273	10.634
1.04607	11.299
1.04938	11.360
1.05272	11.527
1.05605	10.581
1.05938	10.088
1.06272	10.094
1.06605	10.250
1.06938	10.100
1.07272	10.258
1.07605	10.387
1.07938	10.606
1.08270	11.579
1.08603	12.328
1.08937	11.924
1.09270	11.489
1.09603	10.255
1.09937	9.759
1.10270	9.999
1.10603	9.769
1.10937	10.049
1.11268	11.224
1.11602	11.198
1.11935	9.261
1.12268	7.579
1.12602	8.046
1.12935	7.927
1.13268	7.426
1.13602	7.464
1.13935	7.521
1.14268	9.217
1.14600	10.545
1.14933	11.739
1.15267	11.228
1.15600	9.989
1.15933	9.616
1.16267	9.442
1.16600	9.940
1.16933	8.871
1.17267	7.451
1.17600	7.562
1.17932	7.513
1.18265	7.175
1.18598	7.470
1.18932	7.715
1.19265	8.939
1.19598	12.259
1.19932	12.019
1.20265	10.786
1.20598	11.692
1.20930	12.005
1.21263	11.755
1.21597	10.092
1.21930	9.158
1.22263	7.834
1.22597	6.565
1.22930	7.061
1.23263	7.519
1.23597	7.971
1.23930	8.123
1.24262	8.839
1.24595	8.965
1.24928	8.840
1.25262	8.176
1.25595	7.648
1.25928	7.270
1.26262	7.684
1.26595	8.319
1.26928	8.692
1.27262	7.496
1.27593	5.786
1.27927	6.159
1.28260	6.340
1.28593	6.369
1.28927	6.792
1.29260	7.024
1.29593	7.208
1.29927	7.547
1.30260	7.957
1.30592	7.183
1.30925	6.437
1.31258	6.214
1.31592	6.007
1.31925	5.343
1.32258	5.582
1.32592	5.191
1.32925	5.884
1.33258	6.296
1.33592	7.367
1.33923	9.149
1.34257	8.446
1.34590	8.227
1.34923	6.998
1.35257	6.824
1.35590	6.643
1.35923	6.407
1.36257	5.915
1.36590	5.869
1.36923	5.826
1.37255	5.924
1.37588	5.661
1.37922	5.427
1.38255	5.990
1.38588	6.495
1.38922	6.537
1.39255	6.116
1.39588	5.708
1.39922	5.817
1.40253	5.039
1.40587	4.434
1.40920	3.793
1.41253	4.700
1.41587	4.374
1.41920	4.458
1.42253	4.141
1.42587	4.303
1.42920	4.966
1.43253	4.579
1.43585	4.714
1.43918	4.464
1.44252	4.205
1.44585	4.124
1.44918	4.201
1.45252	4.272
1.45585	4.347
1.45918	4.072
1.46252	4.336
1.46583	4.514
1.46917	4.674
1.47250	5.012
1.47583	5.261
1.47917	5.284
1.48250	4.989
1.48583	4.907
1.48917	4.935
1.49250	4.846
1.49583	4.834
1.49915	5.111
1.50248	4.603
1.50582	4.553
1.50915	4.843
1.51248	4.549
1.51582	4.960
1.51915	4.633
1.52248	4.451
1.52582	4.465
1.52915	3.961
1.53247	3.811
1.53580	3.183
1.53913	3.254
1.54247	3.539
1.54580	3.428
1.54913	3.126
1.55247	3.485
1.55580	3.526
1.55913	3.505
1.56245	3.511
1.56578	3.245
1.56912	3.310
1.57245	3.218
1.57578	3.361
1.57912	3.280
1.58245	3.685
1.58578	3.241
1.58912	3.543
1.59245	3.508
1.59577	3.830
1.59910	3.623
1.60243	3.936
1.60577	3.735
1.60910	3.974
1.61243	4.311
1.61577	4.712
1.61910	4.372
1.62243	4.438
1.62577	4.407
1.62908	4.673
1.63242	4.881
1.63575	4.494
1.63908	5.113
1.64242	4.726
1.64575	4.514
1.64908	4.885
1.65242	4.601
1.65575	4.642
1.65907	4.558
1.66240	4.830
1.66573	4.726
1.66907	4.212
1.67240	4.624
1.67573	4.387
1.67907	4.053
1.68240	4.294
1.68573	4.218
1.68907	4.214
1.69238	3.833
1.69572	3.980
1.69905	4.125
1.70238	3.836
1.70572	4.153
1.70905	3.788
1.71238	3.912
1.71572	3.984
1.71905	4.060
1.72237	4.018
1.72570	3.687
1.72903	4.082
1.73237	4.217
1.73570	4.216
1.73903	4.283
1.74237	4.181
1.74570	4.351
1.74903	4.269
1.75237	4.287
1.75568	4.593
1.75902	4.574
1.76235	4.275
1.76568	4.828
1.76902	4.511
1.77235	3.957
1.77568	3.537
1.77902	3.593
1.78235	4.119
1.78568	3.730
1.78900	3.593
1.79233	3.678
1.79567	3.762
1.79900	4.018
1.80233	3.932
1.80567	3.770
1.80900	4.148
1.81233	4.251
1.81567	4.219
1.81898	4.867
1.82232	4.565
1.82565	4.450
1.82898	4.364
1.83232	4.675
1.83565	4.751
1.83898	4.781
1.84232	4.829
1.84565	5.012
1.84898	4.782
1.85232	4.590
1.85563	4.658
1.85897	4.377
1.86230	4.537
1.86563	4.306
1.86897	4.274
1.87230	4.757
1.87563	4.489
1.87897	4.568
1.88230	4.232
1.88562	4.253
1.88895	4.536
1.89228	4.147
1.89562	4.132
1.89895	4.304
1.90228	4.241
1.90562	4.137
1.90895	4.077
1.91228	4.115
1.91560	4.386
1.91893	4.264
1.92227	4.223
